File: cs_ws/src/control_station_pkg/control_station_pkg/MVC_node/models/data/database3/NVPa Stock.csv
wavenumber_cm1,reflectance
560,0.016705
584,0.0138626
609,0.0127139
644,0.0123125
680,0.0130743
704,0.0132928
809,0.0154078
860,0.0220892
899,0.0277582
944,0.0306701